File: old-ev.csv
Voltage,Current,Temperature,Charge Capacity,Internal Resistance,Age in Cycles,State of Charge,Discharge Time,Charge Time,Fault
3.65,5.2,23,85,0.012,1500,55,45,35,0
3.7,4.5,27,95,0.01,500,50,65,55,0
4.1,3.5,33,90,0.014,900,62,85,75,0
3.65,4.4,26,84,0.015,100,57,105,95,1
3.85,5.4,31,91,0.017,1500,58,125,75,0
3.65,5.3,35,90,0.012,1400,52,45,35,0
3.7,4.5,34,88,0.01,1000,50,65,55,0
4.1,3.5,31,90,0.014,300,62,85,75,0
3.65,4.4,27,84,0.015,500,57,105,95,1
3.85,5.4,29,91,0.017,1100,58,125,75,0
3.65,5.3,30,90,0.012,700,52,45,35,0
3.7,4.5,35,88,0.01,200,50,65,55,0
4.1,3.5,32,90,0.014,1300,62,85,75,0
3.65,4.4,27,84,0.015,600,57,105,95,1
3.85,5.4,28,91,0.017,1400,58,125,75,0
3.65,5.3,22,90,0.012,800,52,45,35,0
3.7,4.5,26,88,0.01,400,50,65,55,0
4.1,3.5,35,90,0.014,1200,62,85,75,0
3.65,4.4,21,84,0.015,400,57,105,95,1
3.85,5.4,22,91,0.017,200,58,125,75,0
3.65,5.3,31,90,0.012,700,52,45,35,0
3.7,4.5,27,88,0.01,300,50,65,55,0
4.1,3.5,29,90,0.014,800,62,85,75,0
3.65,4.4,28,84,0.015,400,57,105,95,1
3.85,5.4,29,91,0.017,1000,58,125,75,0
3.65,5.3,34,90,0.012,300,52,45,35,0
3.7,4.5,26,88,0.01,800,50,65,55,0
4.1,3.5,30,90,0.014,400,62,85,75,0
3.65,4.4,27,84,0.015,900,57,105,95,1
3.85,5.4,20,91,0.017,500,58,125,75,0
3.65,5.3,31,90,0.012,100,52,45,35,0
3.7,4.5,30,88,0.01,300,50,65,55,0
4.1,3.5,27,90,0.014,800,62,85,75,0
3.65,4.4,29,84,0.015,400,57,105,95,1
3.85,5.4,31,91,0.017,1000,58,125,75,0
3.65,5.3,30,90,0.012,300,52,45,35,0
3.7,4.5,29,88,0.01,800,50,65,55,0
4.1,3.5,33,90,0.014,400,62,85,75,0
3.65,4.4,28,84,0.015,900,57,105,95,1
3.85,5.4,35,91,0.017,500,58,125,75,0
3.65,5.3,33,90,0.012,100,52,45,35,0
3.7,4.5,31,88,0.01,300,50,65,55,0
4.1,3.5,33,90,0.014,800,62,85,75,0
3.65,4.4,29,84,0.015,400,57,105,95,1
3.85,5.4,34,91,0.017,1000,58,125,75,0
3.65,5.3,27,90,0.012,300,52,45,35,0
3.7,4.5,35,88,0.01,800,50,65,55,0
4.1,3.5,30,90,0.014,400,62,85,75,0
3.65,4.4,25,84,0.015,900,57,105,95,1
3.85,5.4,25,91,0.017,500,58,125,75,0
3.65,5.3,28,90,0.012,100,52,45,35,0
3.7,4.5,34,88,0.01,300,50,65,55,0
4.1,3.5,22,90,0.014,800,62,85,75,0
3.65,4.4,21,84,0.015,400,57,105,95,1
3.85,5.4,33,91,0.017,1000,58,125,75,0
3.65,5.3,31,90,0.012,100,52,45,35,0
3.7,4.5,35,88,0.01,300,50,65,55,0
4.1,3.5,30,90,0.014,800,62,85,75,0
3.65,4.4,25,84,0.015,400,57,105,95,1
3.85,5.4,25,91,0.017,500,58,125,75,0
3.65,5.3,28,90,0.012,100,52,45,35,0
3.7,4.5,34,88,0.01,300,50,65,55,0
4.1,3.5,22,90,0.014,800,62,85,75,0
3.65,4.4,21,84,0.015,400,57,105,95,1
3.85,5.4,33,91,0.017,1000,58,125,75,0
3.65,5.3,27,90,0.012,300,52,45,35,0
3.7,4.5,35,88,0.01,800,50,65,55,0
4.1,3.5,30,90,0.014,400,62,85,75,0
3.65,4.4,25,84,0.015,900,57,105,95,1
3.85,5.4,33,91,0.017,1000,58,125,75,0
3.65,5.3,27,90,0.012,300,52,45,35,0
3.7,4.5,35,88,0.01,800,50,65,55,0
4.1,3.5,30,90,0.014,400,62,85,75,0
3.65,4.4,25,84,0.015,900,57,105,95,1
3.85,5.4,33,91,0.017,1000,58,125,75,0
3.65,5.3,27,90,0.012,300,52,45,35,0
3.7,4.5,35,88,0.01,800,50,65,55,0
4.1,3.5,30,90,0.014,400,62,85,75,0
3.65,4.4,25,84,0.015,900,57,105,95,1
3.85,5.4,33,91,0.017,1000,58,125,75,0
3.65,5.3,27,90,0.012,300,52,45,35,0
3.7,4.5,35,88,0.01,800,50,65,55,0
4.1,3.5,30,90,0.014,400,62,85,75,0
3.65,4.4,25,84,0.015,900,57,105,95,1
3.85,5.4,33,91,0.017,1000,58,125,75,0
3.65,5.3,27,90,0.012,300,52,45,35,0
3.7,4.5,35,88,0.01,800,50,65,55,0
4.1,3.5,30,90,0.014,400,62,85,75,0
3.65,4.4,25,84,0.015,900,57,105,95,1
3.85,5.4,33,91,0.017,1000,58,125,75,0
3.65,5.3,27,90,0.012,300,52,45,35,0
3.7,4.5,35,88,0.01,800,50,65,55,0
4.1,3.5,30,90,0.014,400,62,85,75,0
3.65,4.4,25,84,0.015,900,57,105,95,1
3.85,5.4,33,91,0.017,1000,58,125,75,0
3.65,5.3,27,90,0.012,300,52,45,35,0
3.7,4.5,35,88,0.01,800,50,65,55,0
4.1,3.5,30,90,0.014,400,62,85,75,0
3.65,4.4,25,84,0.015,900,57,105,95,1
3.85,5.4,33,91,0.017,1000,58,125,75,0
3.65,5.3,27,90,0.012,300,52,45,35,0
3.7,4.5,35,88,0.01,800,50,65,55,0
4.1,3.5,30,90,0.014,400,62,85,75,0
3.65,4.4,25,84,0.015,900,57,105,95,1
3.85,5.4,33,91,0.017,1000,58,125,75,0
3.65,5.3,27,90,0.012,300,52,45,35,0
3.7,4.5,35,88,0.01,800,50,65,55,0
4.1,3.5,30,90,0.014,400,62,85,75,0
3.65,4.4,25,84,0.015,900,57,105,95,1
3.85,5.4,33,91,0.017,1000,58,125,75,0
3.65,5.3,27,90,0.012,300,52,45,35,0
3.7,4.5,35,88,0.01,800,50,65,55,0
4.1,3.5,30,90,0.014,400,62,85,75,0
3.65,4.4,25,84,0.015,900,57,105,95,1
3.85,5.4,33,91,0.017,1000,58,125,75,0
3.65,5.3,27,90,0.012,300,52,45,35,0
3.7,4.5,35,88,0.01,800,50,65,55,0
4.1,3.5,30,90,0.014,400,62,85,75,0
3.65,4.4,25,84,0.015,900,57,105,95,1
3.85,5.4,33,91,0.017,1000,58,125,75,0
3.65,5.3,27,90,0.012,300,52,45,35,0
3.7,4.5,35,88,0.01,800,50,65,55,0
4.1,3.5,30,90,0.014,400,62,85,75,0
3.65,4.4,25,84,0.015,900,57,105,95,1
3.85,5.4,33,91,0.017,1000,58,125,75,0
3.65,5.3,27,90,0.012,300,52,45,35,0
3.7,4.5,35,88,0.01,800,50,65,55,0
4.1,3.5,30,90,0.014,400,62,85,75,0
4,5,20,93,0.016,600,65,135,85,1
3.95,5.1,29,65,0.015,100,70,55,45,1
3.9,6,25,74,0.018,600,52,75,65,1
3.8,5.1,28,88,0.011,200,60,95,85,0
4.05,3.6,20,89,0.014,700,69,115,65,1
4,5,20,93,0.016,600,65,135,85,1
3.95,5.1,29,65,0.015,100,70,55,45,1
3.9,6,25,74,0.018,600,52,75,65,1
3.8,5.1,28,88,0.011,200,60,95,85,0
4.05,3.6,20,89,0.014,700,69,115,65,1
4,5,20,93,0.016,600,65,135,85,1
3.95,5.1,29,65,0.015,100,70,55,45,1
3.9,6,25,74,0.018,600,52,75,65,1
3.8,5.1,28,88,0.011,200,60,95,85,0
4.05,3.6,20,89,0.014,700,69,115,65,1
4,5,20,93,0.016,600,65,135,85,1
3.95,5.1,29,65,0.015,100,70,55,45,1
3.9,6,25,74,0.018,600,52,75,65,1
3.8,5.1,28,88,0.011,200,60,95,85,0
4.05,3.6,20,89,0.014,700,69,115,65,1
4,5,20,93,0.016,600,65,135,85,1
3.95,5.1,29,65,0.015,100,70,55,45,1
3.9,6,25,74,0.018,600,52,75,65,1
3.8,5.1,28,88,0.011,200,60,95,85,0
4.05,3.6,20,89,0.014,700,69,115,65,1
4,5,20,93,0.016,600,65,135,85,1
3.95,5.1,29,65,0.015,100,70,55,45,1
3.9,6,25,74,0.018,600,52,75,65,1
3.8,5.1,28,88,0.011,200,60,95,85,0
4.05,3.6,20,89,0.014,700,69,115,65,1
4,5,20,93,0.016,600,65,135,85,1
3.95,5.1,29,65,0.015,100,70,55,45,1
3.9,6,25,74,0.018,600,52,75,65,1
3.8,5.1,28,88,0.011,200,60,95,85,0
4.05,3.6,20,89,0.014,700,69,115,65,1
4,5,20,93,0.016,600,65,135,85,1
3.95,5.1,29,65,0.015,100,70,55,45,1
3.9,6,25,74,0.018,600,52,75,65,1
3.8,5.1,28,88,0.011,200,60,95,85,0
4.05,3.6,20,89,0.014,700,69,115,65,1
4,5,20,93,0.016,600,65,135,85,1
3.95,5.1,29,65,0.015,100,70,55,45,1
3.9,6,25,74,0.018,600,52,75,65,1
3.8,5.1,28,88,0.011,200,60,95,85,0
4.05,3.6,20,89,0.014,700,69,115,65,1
4,5,20,93,0.016,600,65,135,85,1
3.95,5.1,29,65,0.015,100,70,55,45,1
3.9,6,25,74,0.018,600,52,75,65,1
3.8,5.1,28,88,0.011,200,60,95,85,0
4.05,3.6,20,89,0.014,700,69,115,65,1
4,5,20,93,0.016,600,65,135,85,1
3.95,5.1,29,65,0.015,100,70,55,45,1
3.9,6,25,74,0.018,600,52,75,65,1
3.8,5.1,28,88,0.011,200,60,95,85,0
4.05,3.6,20,89,0.014,700,69,115,65,1
4,5,20,93,0.016,600,65,135,85,1
3.95,5.1,29,65,0.015,100,70,55,45,1
3.9,6,25,74,0.018,600,52,75,65,1
3.8,5.1,28,88,0.011,200,60,95,85,0
4.05,3.6,20,89,0.014,700,69,115,65,1
4,5,20,93,0.016,600,65,135,85,1
3.95,5.1,29,65,0.015,100,70,55,45,1
3.9,6,25,74,0.018,600,52,75,65,1
3.8,5.1,28,88,0.011,200,60,95,85,0
4.05,3.6,20,89,0.014,700,69,115,65,1
4,5,20,93,0.016,600,65,135,85,1
3.95,5.1,29,65,0.015,100,70,55,45,1
3.9,6,25,74,0.018,600,52,75,65,1
3.8,5.1,28,88,0.011,200,60,95,85,0
4.05,3.6,20,89,0.014,700,69,115,65,1
4,5,20,93,0.016,600,65,135,85,1
3.95,5.1,29,65,0.015,100,70,55,45,1
3.9,6,25,74,0.018,600,52,75,65,1
3.8,5.1,28,88,0.011,200,60,95,85,0
4.05,3.6,20,89,0.014,700,69,115,65,1
4,5,20,93,0.016,600,65,135,85,1
3.95,5.1,29,65,0.015,100,70,55,45,1
3.9,6,25,74,0.018,600,52,75,65,1
3.8,5.1,28,88,0.011,200,60,95,85,0
4.05,3.6,20,89,0.014,700,69,115,65,1
4,5,20,93,0.016,600,65,135,85,1
3.95,5.1,29,65,0.015,100,70,55,45,1
3.9,6,25,74,0.018,600,52,75,65,1
3.8,5.1,28,88,0.011,200,60,95,85,0
4.05,3.6,20,89,0.014,700,69,115,65,1
4,5,20,93,0.016,600,65,135,85,1
3.95,5.1,29,65,0.015,100,70,55,45,1
3.9,6,25,74,0.018,600,52,75,65,1
3.8,5.1,28,88,0.011,200,60,95,85,0
4.05,3.6,20,89,0.014,700,69,115,65,1
4,5,20,93,0.016,600,65,135,85,1
3.95,5.1,29,65,0.015,100,70,55,45,1
3.9,6,25,74,0.018,600,52,75,65,1
3.75,4.8,31,78,0.013,300,55,90,80,1
3.9,5.2,30,77,0.012,800,53,110,60,0
3.95,3.7,28,85,0.011,800,61,130,80,0
3.8,4.9,22,70,0.013,200,60,50,40,0
3.85,5.3,20,80,0.017,700,58,70,60,1
3.75,4.8,31,78,0.013,300,55,90,80,1
3.9,5.2,30,77,0.012,800,53,110,60,0
3.95,3.7,28,85,0.011,800,61,130,80,0
3.8,4.9,22,70,0.013,200,60,50,40,0
3.85,5.3,20,80,0.017,700,58,70,60,1
3.75,4.8,31,78,0.013,300,55,90,80,1
3.9,5.2,30,77,0.012,800,53,110,60,0
3.95,3.7,28,85,0.011,800,61,130,80,0
3.8,4.9,22,70,0.013,200,60,50,40,0
3.85,5.3,20,80,0.017,700,58,70,60,1
3.75,4.8,31,78,0.013,300,55,90,80,1
3.9,5.2,30,77,0.012,800,53,110,60,0
3.95,3.7,28,85,0.011,800,61,130,80,0
3.8,4.9,22,70,0.013,200,60,50,40,0
3.85,5.3,20,80,0.017,700,58,70,60,1
3.75,4.8,31,78,0.013,300,55,90,80,1
3.9,5.2,30,77,0.012,800,53,110,60,0
3.95,3.7,28,85,0.011,800,61,130,80,0
3.8,4.9,22,70,0.013,200,60,50,40,0
3.85,5.3,20,80,0.017,700,58,70,60,1
3.75,4.8,31,78,0.013,300,55,90,80,1
3.9,5.2,30,77,0.012,800,53,110,60,0
3.95,3.7,28,85,0.011,800,61,130,80,0
3.8,4.9,22,70,0.013,200,60,50,40,0
3.85,5.3,20,80,0.017,700,58,70,60,1
3.75,4.8,31,78,0.013,300,55,90,80,1
3.9,5.2,30,77,0.012,800,53,110,60,0
3.95,3.7,28,85,0.011,800,61,130,80,0
3.8,4.9,22,70,0.013,200,60,50,40,0
3.85,5.3,20,80,0.017,700,58,70,60,1
3.75,4.8,31,78,0.013,300,55,90,80,1
3.9,5.2,30,77,0.012,800,53,110,60,0
3.95,3.7,28,85,0.011,800,61,130,80,0
3.8,4.9,22,70,0.013,200,60,50,40,0
3.85,5.3,20,80,0.017,700,58,70,60,1
3.75,4.8,31,78,0.013,300,55,90,80,1
3.9,5.2,30,77,0.012,800,53,110,60,0
3.95,3.7,28,85,0.011,800,61,130,80,0
3.8,4.9,22,70,0.013,200,60,50,40,0
3.85,5.3,20,80,0.017,700,58,70,60,1
3.75,4.8,31,78,0.013,300,55,90,80,1
3.9,5.2,30,77,0.012,800,53,110,60,0
3.95,3.7,28,85,0.011,800,61,130,80,0
3.8,4.9,22,70,0.013,200,60,50,40,0
3.85,5.3,20,80,0.017,700,58,70,60,1
3.75,4.8,31,78,0.013,300,55,90,80,1
3.9,5.2,30,77,0.012,800,53,110,60,0
3.95,3.7,28,85,0.011,800,61,130,80,0
3.8,4.9,22,70,0.013,200,60,50,40,0
3.85,5.3,20,80,0.017,700,58,70,60,1
4.1,3.5,30,90,0.014,400,62,85,75,0